#Rx
# X(m), Y(m), Z(m), Distance(m), Power (dBm) Phase (deg)
1 674.262 690.279 90.7344 156.343 -124.063 -10.3684
2 690.86 494.671 92.4558 99.0024 -120.078 110.45
3 798.59 512.316 90.3401 85.5918 -122.13 145.565
4 734.588 570.04 91.7358 51.506 -104.804 115.035
5 661.757 543.179 94.5437 100.429 -117.337 -171.011
6 659.463 543.234 94.6932 102.427 -135.109 -139.311
7 751.452 704.304 90.7433 152.245 -130.081 35.9335
8 811.391 434.933 89.4536 148.728 -109.733 68.5993
