#Rx
# X(m), Y(m), Z(m), Distance(m), Power (dBm) Phase (deg)
1 684.21 615.476 138.814 127.151 -124.745 94.5441
2 661.09 543.195 140.309 130.591 -132.061 -147.17
3 755.509 655.052 137.878 134.973 -113.243 -50.3502
4 773.214 440.14 136.725 154.858 -115.643 -3.31682
5 773.424 437.59 136.777 156.908 -113.609 -160.447
6 803.65 469.562 135.708 142.077 -122.301 -3.88439
7 782.161 565.693 137.209 101.515 -132.367 -159.285
8 778.889 580.327 137.412 102.463 -120.136 -167.518
9 744.191 735.542 134.406 198.143 -117.827 78.5605
10 732.364 585.763 137.832 99.6663 -131.441 108.07
