#Rx
# X(m), Y(m), Z(m), Distance(m), Power (dBm) Phase (deg)
1 674.262 690.279 87.5544 155.392 -118.843 -157.058
2 690.86 494.671 89.2758 97.4373 -122.518 -148.829
3 798.59 512.316 87.1601 83.8567 -118.041 81.5708
4 734.588 570.04 88.5558 48.4767 -100.126 -89.5106
5 661.757 543.179 91.3637 98.8189 -128.17 -164.73
6 659.463 543.234 91.5132 100.845 -121.452 44.8038
7 751.452 704.304 87.5633 151.268 -114.389 -60.8084
8 811.391 434.933 86.2736 147.756 -114.531 -49.7445
