#Rx
# X(m), Y(m), Z(m), Distance(m), Power (dBm) Phase (deg)
1 681.635 603.385 138.24 123.234 -130.09 -175.028
2 684.201 573.154 138.802 115.16 -127.164 -170.922
3 686.071 551.114 138.1 113.161 -122.726 6.18338
4 826.585 487.068 133.385 141.664 -126.231 116.836
5 800.742 510.376 135.315 118.614 -116.168 -34.9158
6 789.744 520.294 136.028 110.604 -122.949 -62.6639
7 738.401 566.601 136.661 94.6739 -131.83 39.7038
8 663.865 633.825 137.896 145.918 -122.828 -163.863
9 797.077 498.966 135.528 122.409 -135.835 70.7314
10 722.423 832.918 99.0691 279.71 -250 0
