#Rx
# X(m), Y(m), Z(m), Distance(m), Power (dBm) Phase (deg)
1 680.298 619.142 188.649 170.784 -124.845 -179.804
2 694.956 446.396 189.031 192.291 -128.836 50.8391
3 804.863 539.757 185.923 156.327 -130.553 -19.3625
4 764.05 551.386 187.159 146.012 -132.315 -59.8056
5 748.682 737.931 184.154 227.433 -121.542 152.142
6 755.588 654.098 187.887 173.427 -126.665 167.214
7 827.236 364.053 181.462 253.571 -118.909 110.482
8 790.199 529.733 186.79 153.891 -127.624 -177.398
9 789.169 673.878 185.878 188.102 -127.725 160.822
10 747.651 609.476 188.159 153.819 -126.26 11.0331
