#Rx
# X(m), Y(m), Z(m), Distance(m), Power (dBm) Phase (deg)
1 697.345 418.248 188.264 209.048 -129.472 -45.3811
2 698.698 402.3 187.401 219.309 -141.242 -10.5185
3 821.438 491.71 184.616 174.771 -121.333 128.03
4 660.302 637.039 188.589 186.049 -131.128 149.032
5 742.892 541.239 186.538 145.264 -135.704 -23.0473
6 659.97 543.222 190.247 171.77 -125.363 49.378
7 757.095 635.803 187.924 164.348 -132.19 12.2808
8 773.321 438.839 186.751 190.337 -124.817 -48.4919
9 807.844 450.804 185.558 190.282 -117.433 -47.5631
10 722.585 832.195 149.664 293.458 -250 0
