#Rx
# X(m), Y(m), Z(m), Distance(m), Power (dBm) Phase (deg)
1 684.885 565.084 89.9886 77.5486 -123.875 2.47795
2 688.249 525.439 88.3734 81.4359 -113.113 -34.9846
3 692.163 479.32 89.0748 107.586 -119.738 114.014
4 741.911 563.436 88.0418 45.8306 -109.263 153.883
5 720.439 541.776 87.0039 54.4427 -105.827 -108.247
6 672.925 542.912 89.9998 88.8028 -118.517 -91.3373
7 763.355 559.821 88.0658 48.7372 -105.283 -173.482
8 772.846 444.615 87.4332 126.694 -112.925 -175.83
9 773.27 439.458 87.3985 131.483 -111.46 -126.166
10 748.702 715.364 86.6189 161.523 -108.872 -147.038
