#Rx
# X(m), Y(m), Z(m), Distance(m), Power (dBm) Phase (deg)
1 688.158 526.513 93.1025 83.8171 -115.73 -80.3349
2 698.996 398.791 92.7934 175.285 -158.459 -169.063
3 783.161 526.232 91.958 70.4623 -104.828 54.2688
4 749.733 725.167 90.4186 172.011 -110.814 -94.3232
5 758.687 616.476 93.4692 77.1103 -106.856 124.92
6 772.141 453.172 91.7064 120.476 -114.719 96.4177
7 816.709 411.145 89.4683 171.352 -129.356 -140.324
8 752.181 699.803 91.8248 148.37 -125.51 -74.0678
9 722.54 832.395 54.9118 273.683 -250 0
