#Rx
# X(m), Y(m), Z(m), Distance(m), Power (dBm) Phase (deg)
1 776.935 531.847 97.0685 68.7363 -104.124 -16.2764
2 751.007 555.232 97.4656 55.3754 -100.127 -117.915
3 738.706 566.326 97.5141 55.8318 -110.73 78.742
4 663.838 633.85 98.8539 124.006 -131.235 -127.492
5 731.916 541.501 96.6172 58.8784 -102.043 102.405
6 767.112 514.218 96.572 73.9119 -111.616 -96.7481
7 772.838 444.703 96.8545 130.252 -112.62 22.6337
8 758.793 670.226 97.6217 123.892 -108.323 149.127
9 796.231 502.75 96.5449 93.3761 -108.852 -69.8793
10 715.279 559.262 97.2984 62.8061 -99.6402 9.06248
