#Rx
# X(m), Y(m), Z(m), Distance(m), Power (dBm) Phase (deg)
1 776.935 531.847 136.846 103.18 -127.494 68.914
2 751.007 555.232 137.243 94.9711 -144.891 25.6051
3 738.706 566.326 137.291 95.2582 -127.177 -15.8412
4 663.838 633.85 138.631 146.428 -128.432 -1.14414
5 731.916 541.501 136.394 96.707 -132.083 31.9207
6 767.112 514.218 136.349 106.513 -123.845 -132.085
7 772.838 444.703 136.632 151.229 -114.355 -176.72
8 758.793 670.226 137.399 145.995 -113.104 115.093
9 796.231 502.75 136.322 120.826 -115.124 90.3466
10 715.279 559.262 137.075 99.4202 -138.984 -174.507
