#Rx
# X(m), Y(m), Z(m), Distance(m), Power (dBm) Phase (deg)
1 688.088 527.34 138.022 116.364 -120.207 168.166
2 748.87 735.641 134.44 198.259 -115.305 -79.1254
3 750.22 719.261 135.656 184.541 -113.6 39.7612
4 824.076 378.191 132.526 217.373 -116.58 95.4448
5 815.362 417.17 134.645 183.569 -115.261 -48.8831
6 753.032 695.993 136.901 165.683 -113.333 -108.818
7 747.601 720.288 135.776 185.448 -121.774 -50.8118
8 736.355 770.597 131.805 228.944 -111.539 -144.269
9 767.205 639.809 137.976 126.216 -118.623 69.458
