#Rx
# X(m), Y(m), Z(m), Distance(m), Power (dBm) Phase (deg)
1 679.728 625.867 88.577 104.17 -134.985 128.236
2 685.784 554.492 88.9639 76.243 -124.76 -61.9846
3 825.654 487.907 84.3242 115.279 -117.322 -92.9493
4 750.505 541.057 86.6373 48.2199 -130.231 166.607
5 668.304 543.022 89.7636 92.5013 -111.828 98.3371
6 757.032 636.563 87.9162 89.6888 -106.024 30.9118
7 759.646 604.838 87.9427 65.2654 -113.464 -64.2216
8 768.814 493.555 86.3726 82.814 -100.562 152.933
9 724.991 821.432 49.664 262.372 -250 0
10 800.034 690.733 84.3163 147.504 -250 0
