#Rx
# X(m), Y(m), Z(m), Distance(m), Power (dBm) Phase (deg)
1 699.125 397.268 135.427 193.158 -138.159 -25.8584
2 752.153 554.198 135.105 92.9666 -137.675 -104.496
3 763.356 540.75 134.825 95.8715 -126.921 93.313
4 758.983 612.892 136.198 108.356 -118.095 -76.8698
5 750.731 706.287 134.547 172.889 -109.246 83.2495
6 811.854 432.865 133.299 169.529 -109.558 -104.503
7 781.318 569.461 135.381 99.7963 -122.162 -87.3906
8 720.459 567.298 135.089 96.3015 -131.494 39.3976
9 717.602 562.866 135.011 96.791 -132.294 -11.9737
10 715.728 559.959 134.946 97.254 -134.879 -62.5306
