#Rx
# X(m), Y(m), Z(m), Distance(m), Power (dBm) Phase (deg)
1 673.388 700.577 83.83 163.526 -158.625 -142.366
2 687.561 533.556 86.1046 77.5485 -113.068 24.857
3 696.464 428.63 86.9769 147.268 -250 0
4 699.062 398.015 85.4872 174.035 -154.706 -54.6909
5 659.347 543.236 88.4922 99.5131 -130.288 15.0643
6 752.415 692.609 85.0206 139.4 -109.021 -141.885
7 817.493 407.639 82.1335 172.899 -154.743 66.5973
8 803.554 469.99 83.7955 114.532 -112.127 94.1548
9 776.6 590.568 85.6347 61.0681 -103.934 -3.18001
10 757.216 677.28 85.1769 125.299 -105.618 -82.787
