#Rx
# X(m), Y(m), Z(m), Distance(m), Power (dBm) Phase (deg)
1 682.426 594.072 189.315 163.556 -138.238 83.6479
2 683.768 578.256 189.516 160.664 -124.152 -171.671
3 688.861 518.235 187.805 161.604 -122.177 120.248
4 659.969 543.222 190.247 171.77 -125.398 12.6444
5 754.097 672.199 187.39 183.414 -120.587 -27.8647
6 755.359 656.877 187.86 174.916 -118.289 152.448
7 760.426 595.368 187.83 150.243 -132.224 -52.5652
8 772.63 447.228 186.72 184.985 -120.688 149.721
9 800.103 485.428 185.954 170.471 -128.246 56.6978
10 779.61 577.103 187.507 149.808 -133.667 -23.8178
