#Rx
# X(m), Y(m), Z(m), Distance(m), Power (dBm) Phase (deg)
1 684.21 615.476 88.814 95.07 -133.943 21.084
2 661.09 543.195 90.3088 98.8713 -148.972 28.9922
3 755.509 655.052 87.878 105.747 -107.775 31.8629
4 773.214 440.14 86.7247 130.617 -111.103 33.6552
5 773.424 437.59 86.7768 133.021 -107.999 -118.081
6 803.65 469.562 85.7081 115.618 -109.973 20.562
7 782.161 565.693 87.2088 57.7647 -121.119 20.7495
8 778.889 580.327 87.4119 59.2439 -105.549 30.1715
9 744.191 735.542 84.4063 180.479 -109.946 -95.7678
10 732.364 585.763 87.8319 53.8752 -114.313 -125.114
