#Rx
# X(m), Y(m), Z(m), Distance(m), Power (dBm) Phase (deg)
1 699.125 397.268 187.407 222.868 -148.211 9.68948
2 752.153 554.198 187.085 144.809 -139.924 -68.4997
3 763.356 540.75 186.805 146.591 -131.735 -106.125
4 758.983 612.892 188.179 155.504 -134.28 147.844
5 750.731 706.287 186.528 205.327 -118.817 -119.424
6 811.854 432.865 185.28 202.186 -123.543 -146.313
7 781.318 569.461 187.361 149.381 -136.753 -130.9
8 720.459 567.298 187.07 146.967 -129.174 -80.2659
9 717.602 562.866 186.991 147.26 -134.296 117.414
10 715.728 559.959 186.927 147.542 -149.373 -73.0397
