#Rx
# X(m), Y(m), Z(m), Distance(m), Power (dBm) Phase (deg)
1 681.056 610.22 137.972 125.897 -125.236 144.635
2 697.796 412.932 136.933 181.289 -135.53 -149.629
3 660.808 636.582 137.606 148.873 -121.039 98.5892
4 771.746 540.549 136.2 99.0776 -130.518 -16.1152
5 724.918 541.669 135.547 97.1282 -130.667 -46.1511
6 810.128 440.584 134.504 163.808 -110.962 34.1587
7 780.921 571.239 136.53 100.911 -116.405 111.599
8 744.648 733.5 133.848 196.072 -128.627 -155.419
9 741.254 748.684 132.539 209.11 -114.449 -152.832
10 725.514 819.092 98.9084 265.946 -250 0
