#Rx
# X(m), Y(m), Z(m), Distance(m), Power (dBm) Phase (deg)
1 679.281 631.13 138.66 136.942 -129.127 107.539
2 690.443 499.581 138.237 126.088 -119.906 23.154
3 749.143 732.327 134.478 195.352 -128.263 -33.0415
4 750.531 715.479 136.013 181.479 -115.063 101.683
5 765.561 533.035 136.586 99.7876 -122.463 22.0042
6 769.497 485.264 136.522 122.365 -125.435 42.4277
7 808.974 445.747 135.439 160.165 -115.558 139.536
8 769.552 622.094 137.999 116.301 -117.188 43
9 730.939 794.827 129.759 250.959 -117.159 52.9738
10 715.731 559.963 136.927 99.1372 -121.421 117.209
