#Rx
# X(m), Y(m), Z(m), Distance(m), Power (dBm) Phase (deg)
1 699.086 397.728 87.6263 174.836 -151.404 106.437
2 732.912 571.551 87.5993 48.3379 -102.679 -144.904
3 707.772 594.225 88.9456 69.1938 -134.821 78.7932
4 817.544 539.454 85.2207 85.8125 -117.041 -94.5522
5 748.743 737.184 84.435 182.094 -116.128 8.12122
6 750.538 715.397 86.0994 161.455 -110.284 131.112
7 814.555 420.782 84.8008 160.838 -125.488 54.6194
8 751.2 704.189 86.7953 150.922 -122.194 -62.0112
9 737.82 764.044 82.4325 208.071 -116.262 -117.522
10 785.693 668.487 86.5567 123.628 -127.619 127.991
