#Rx
# X(m), Y(m), Z(m), Distance(m), Power (dBm) Phase (deg)
1 699.169 396.746 86.4869 175.436 -146.373 -56.0898
2 748.779 557.241 86.2158 43.8673 -97.2543 -133.616
3 759.162 540.85 85.8295 49.1464 -102.518 -118.069
4 759.253 609.608 87.2185 68.0754 -102.432 0.699729
5 749.935 709.849 85.5243 155.946 -111.809 58.2262
6 810.983 436.758 84.4191 145.488 -120.944 136.145
7 780.447 573.357 86.4941 57.432 -108.583 16.0426
8 719.391 565.641 86.0804 51.352 -105.067 -14.5259
9 716.83 561.667 86.0848 52.4525 -111.122 128.724
10 715.585 559.737 86.0086 53.0666 -111.042 157.125
