#Rx
# X(m), Y(m), Z(m), Distance(m), Power (dBm) Phase (deg)
1 685.124 614.652 88.8317 94.0066 -128.912 -99.1044
2 661.433 543.187 90.2848 98.5668 -112.003 64.4464
3 755.384 656.571 87.8633 107.096 -119.143 16.2011
4 773.183 440.522 86.7169 130.258 -110.309 0.0231823
5 773.419 437.649 86.7756 132.966 -112.301 -69.5918
6 803.983 468.071 85.685 116.944 -106.618 -168.118
7 782.437 564.455 87.1916 57.8166 -113.283 -11.3025
8 779.167 579.084 87.3947 58.9718 -107.261 -141.271
9 744.518 734.082 84.5187 179.082 -115.321 25.5395
10 733.072 586.862 87.8772 54.2739 -113.614 144.624
