#Rx
# X(m), Y(m), Z(m), Distance(m), Power (dBm) Phase (deg)
1 673.111 703.842 133.47 185.134 -136.828 91.813
2 682.629 591.675 136.999 118.088 -127.904 121.338
3 687.863 529.99 135.66 113.82 -118.605 156.326
4 723.466 580.071 135.437 97.6908 -127.103 -43.6645
5 753.21 682.959 134.951 153.993 -110.483 43.6935
6 755.332 657.201 135.63 134.922 -112.057 82.9948
7 768.39 627.292 135.731 117.121 -115.72 29.1684
8 750.687 706.487 134.195 172.87 -125.247 -43.0497
9 724.204 824.952 97.5363 271.479 -250 0
10 780.441 660.34 134.451 140.375 -116.299 -147.565
