#Rx
# X(m), Y(m), Z(m), Distance(m), Power (dBm) Phase (deg)
1 684.885 565.084 140.401 115.503 -121.195 -120.709
2 688.249 525.439 138.786 117.457 -122.459 19.6749
3 692.163 479.32 139.488 137.149 -115.415 15.9547
4 741.911 563.436 138.455 96.0796 -126.282 -90.4229
5 720.439 541.776 137.417 99.951 -133.083 141.604
6 672.925 542.912 140.413 123.346 -128.419 15.2603
7 763.355 559.821 138.479 97.512 -126.807 -18.791
8 772.846 444.615 137.846 152.055 -116.42 10.2671
9 773.27 439.458 137.811 156.057 -116.051 -30.6291
10 748.702 715.364 137.032 181.871 -109.685 -36.7401
