#Rx
# X(m), Y(m), Z(m), Distance(m), Power (dBm) Phase (deg)
1 686.832 542.147 142.825 117.813 -129.204 39.1072
2 699.179 396.626 141.881 196.863 -136.361 -94.4531
3 743.963 561.584 141.823 99.333 -132.203 -110.44
4 668.716 629.45 143.151 144.645 -134.029 169.56
5 751.874 699.175 141.082 170.64 -110.908 69.747
6 761.851 578.073 142.236 102.569 -128.799 -178.882
7 820.542 394 137.913 205.455 -114.44 106.097
8 794.608 510.009 140.807 120.505 -125.478 175.141
9 780.822 571.681 141.864 105.913 -128.664 -31.985
10 733.25 784.488 135.226 243.21 -118.077 -174.316
