#Rx
# X(m), Y(m), Z(m), Distance(m), Power (dBm) Phase (deg)
1 675.169 679.598 88.8059 146.502 -135.015 29.3538
2 699.201 396.371 89.1955 176.474 -147.846 -113.428
3 842.896 472.357 84.8172 137.327 -114.921 168.769
4 672.942 625.639 90.2665 109.203 -131.403 20.7073
5 833.477 539.073 85.5808 99.7203 -121.896 31.976
6 773.297 439.136 88.4323 132.14 -111.217 73.8096
7 793.029 517.076 88.2708 78.403 -126.135 94.8845
8 751.533 702.699 88.1973 149.932 -108.637 -5.30074
9 741.805 746.218 85.2718 191.108 -119.724 -130.632
10 717.936 563.383 88.5953 54.0523 -117.507 112.441
