#Rx
# X(m), Y(m), Z(m), Distance(m), Power (dBm) Phase (deg)
1 699.142 397.067 133.764 192.53 -142.876 83.0865
2 751.028 555.213 133.459 91.1999 -131.231 -143.612
3 761.956 540.783 133.144 93.9993 -138.387 97.0971
4 759.073 611.797 134.522 106.384 -117.899 -136.387
5 750.466 707.473 132.857 172.998 -115.015 55.1435
6 811.564 434.163 131.656 167.566 -114.498 -27.1768
7 781.029 570.756 133.736 98.2971 -121.547 -173.236
8 720.089 566.723 133.403 94.7394 -127.594 -100.868
9 717.329 562.442 133.353 95.2781 -140.898 -147.648
10 715.665 559.86 133.285 95.6964 -124.012 -164.641
