#Rx
# X(m), Y(m), Z(m), Distance(m), Power (dBm) Phase (deg)
1 673.388 700.577 85.7493 164.021 -131.417 30.7132
2 687.561 533.556 88.0238 78.6431 -111.466 27.57
3 696.464 428.63 88.8961 147.859 -250 0
4 699.062 398.015 87.4065 174.519 -142.797 37.8478
5 659.347 543.236 90.4115 100.414 -114.497 7.04389
6 752.415 692.609 86.9399 139.997 -113.745 49.6957
7 817.493 407.639 84.0528 173.349 -124.407 69.5797
8 803.554 469.99 85.7147 115.238 -115.548 -23.8744
9 776.6 590.568 87.554 62.4378 -101.292 -113.002
10 757.216 677.28 87.0962 125.965 -130.295 -174.941
