#Rx
# X(m), Y(m), Z(m), Distance(m), Power (dBm) Phase (deg)
1 674.991 681.687 95.7087 150.594 -126.807 -68.9043
2 699.178 396.643 96.2205 178.216 -148.129 146.21
3 844.784 470.654 91.7116 141.988 -123.044 -69.4367
4 674.377 624.344 97.3058 110.775 -138.59 148.492
5 835.813 539.017 92.4437 104.875 -129.17 -89.3625
6 773.244 439.778 95.4445 134.15 -114.295 -48.6675
7 793.641 514.338 95.2537 84.4696 -120.18 -60.9876
8 752.202 699.708 95.2915 149.47 -110.956 177.563
9 742.407 743.526 92.5043 190.244 -123.322 135.773
10 718.501 564.26 95.6568 59.9789 -100.733 48.6228
