#Rx
# X(m), Y(m), Z(m), Distance(m), Power (dBm) Phase (deg)
1 686.324 548.128 97.3588 81.9088 -119.962 58.1646
2 742.968 562.482 96.0039 53.6236 -98.3504 115.67
3 692.66 607.855 97.7963 90.5005 -143.003 32.2922
4 663.253 634.377 97.2633 123.998 -131.622 32.0456
5 847.635 538.734 91.6876 114.887 -127.731 -43.2651
6 814.159 422.553 93.5441 161.68 -112.816 49.0226
7 774.565 599.669 96.5984 72.895 -105.529 79.5724
8 771.123 615.068 96.672 81.2139 -103.327 -111.587
9 753.899 692.115 95.6323 142.609 -122.862 75.472
10 728.614 805.224 58.5421 246.361 -250 0
