#Rx
# X(m), Y(m), Z(m), Distance(m), Power (dBm) Phase (deg)
1 698.066 409.744 88.503 164.282 -250 0
2 729.903 541.549 87.3074 51.0403 -106.317 -158.675
3 760.55 593.861 88.7513 59.121 -103.001 -59.9999
4 762.832 566.162 88.2811 49.1431 -99.2636 144.088
5 801.24 480.345 86.6745 106.516 -107.492 39.0075
6 792.364 520.049 87.2892 75.8267 -111.839 90.9987
7 785.619 550.22 87.9336 61.0525 -114.928 151.307
8 724.71 822.687 50.6035 263.673 -250 0
9 722.86 830.965 50.5635 272.07 -250 0
10 715.391 559.435 87.8728 54.7158 -111.908 47.1307
