#Rx
# X(m), Y(m), Z(m), Distance(m), Power (dBm) Phase (deg)
1 675.257 678.554 136.941 167.255 -127.099 29.9695
2 699.208 396.293 137.27 194.85 -136.186 167.181
3 841.952 473.208 132.957 157.854 -134.882 86.0587
4 672.256 626.257 138.334 137.869 -124.279 120.352
5 832.312 539.101 133.736 127.304 -123.636 -118.172
6 773.32 438.858 136.512 155.743 -117.887 -46.6387
7 792.724 518.441 136.366 112.769 -116.594 134.061
8 751.199 704.194 136.237 172.05 -135.591 44.378
9 741.503 747.566 133.242 208.402 -113.904 77.0879
10 717.676 562.98 136.653 98.3438 -122.878 86.0048
