#Rx
# X(m), Y(m), Z(m), Distance(m), Power (dBm) Phase (deg)
1 687.945 529.03 96.1663 84.8948 -123.399 -134.068
2 698.923 399.648 95.76 175.394 -151.403 -64.6415
3 785.157 524.431 94.9145 74.453 -102.399 99.0563
4 749.49 728.116 93.142 175.606 -116.188 88.2988
5 758.491 618.861 96.4423 80.795 -109.84 165.001
6 771.985 455.059 94.6355 120.015 -108.805 -109.453
7 817.298 408.511 92.31 174.674 -128.33 -119.334
8 752.817 696.957 94.858 146.774 -110.493 84.4166
9 722.585 832.196 57.8795 273.633 -250 0
