#Rx
# X(m), Y(m), Z(m), Distance(m), Power (dBm) Phase (deg)
1 678.023 645.961 101.895 124.64 -121.972 -45.4029
2 691.462 487.571 101.681 108.258 -121.541 -65.975
3 668.953 543.007 103.153 99.5039 -129.103 -154.367
4 773.032 442.354 100.075 133.729 -114.382 22.7817
5 756.687 640.754 101.271 100.432 -112.081 72.1005
6 758.82 614.86 101.597 81.6312 -110.673 90.0255
7 768.034 503.022 99.8969 83.8077 -107.957 143.306
8 780.002 659.659 100.114 120.02 -113.841 -84.7532
9 769.18 642.873 101.215 104.163 -110.003 82.2724
10 717.191 562.228 100.294 64.5937 -100.989 97.6128
