#Rx
# X(m), Y(m), Z(m), Distance(m), Power (dBm) Phase (deg)
1 677.508 652.031 90.3197 124.28 -140.479 -96.3945
2 699.059 398.039 89.5712 175.067 -150.391 99.9606
3 742.243 541.254 88.6941 49.9723 -105.922 150.087
4 725.638 541.651 88.4769 53.5068 -103.331 -77.9214
5 768.072 502.565 88.3872 76.7424 -102.116 4.93028
6 770.849 468.856 88.5656 105.093 -107.694 21.2763
7 773.419 437.649 88.8004 133.653 -115.118 120.244
8 758.71 670.593 89.2751 120.74 -108.562 149.78
9 724.623 823.076 51.8288 264.107 -250 0
10 799.745 690.285 86.3876 147.603 -250 0
