#Rx
# X(m), Y(m), Z(m), Distance(m), Power (dBm) Phase (deg)
1 679.281 631.13 87.5696 107.424 -141.315 18.3459
2 690.443 499.581 87.1466 93.4251 -118.259 118.242
3 749.143 732.327 83.3872 177.134 -111.74 114.706
4 750.531 715.479 84.9226 161.22 -111.39 65.3391
5 765.561 533.035 85.4959 54.3723 -106.691 -169.694
6 769.497 485.264 85.4315 89.3231 -112.239 65.1766
7 808.974 445.747 84.3488 136.999 -111.936 143.988
8 769.552 622.094 86.9082 79.8774 -108.126 84.978
9 730.939 794.827 78.6686 238.069 -118.349 -99.7879
10 715.731 559.963 85.8362 52.8413 -112.83 -79.1532
