#Rx
# X(m), Y(m), Z(m), Distance(m), Power (dBm) Phase (deg)
1 673.63 697.727 100.136 165.908 -130.731 59.7465
2 687.799 530.749 102.136 88.2988 -112.537 133.222
3 696.677 426.116 102.938 154.944 -250 0
4 699.107 397.481 101.627 179.177 -146.271 -68.063
5 659.2 543.24 104.631 108.039 -116.693 143.136
6 752.633 689.971 101.236 142.771 -112.886 -30.486
7 816.917 410.213 98.3954 174.892 -115.588 77.5078
8 802.983 472.547 99.9738 119.146 -108.616 -117.807
9 775.893 593.73 101.817 74.4786 -103.712 66.6283
10 756.534 680.328 101.245 134.306 -108.296 -158.618
