#Rx
# X(m), Y(m), Z(m), Distance(m), Power (dBm) Phase (deg)
1 673.648 697.518 133.42 180.023 -130.046 31.7455
2 793.264 517.12 134.059 111.585 -120.903 136.452
3 757.913 549.003 134.488 93.3827 -138.269 137.223
4 723.797 579.772 135.151 97.2816 -127.65 -12.8855
5 806.831 455.334 133.119 151.205 -113.969 66.0225
6 803.342 470.941 133.221 139.448 -125.37 -14.5859
7 784.768 554.03 134.638 100.118 -118.365 55.5654
8 758.132 673.181 134.782 146.522 -112.898 -75.1227
9 754.609 620.269 135.617 111.233 -120.85 -96.564
10 715.569 559.712 134.421 96.8053 -124.004 -173.033
