#Rx
# X(m), Y(m), Z(m), Distance(m), Power (dBm) Phase (deg)
1 675.08 680.641 87.0576 146.857 -133.816 -52.0442
2 699.191 396.487 87.5083 175.929 -147.821 -98.3571
3 843.841 471.505 83.0646 138.014 -119.73 19.6669
4 673.649 625.001 88.5863 107.617 -138.916 116.475
5 834.643 539.045 83.8127 100.008 -119.025 80.2577
6 773.272 439.443 86.7389 131.273 -107.828 -119.385
7 793.335 515.707 86.5625 78.37 -139.798 156.105
8 751.868 701.202 86.5447 148.021 -107.915 -115.827
9 742.105 744.874 83.6882 189.441 -107.542 123.934
10 718.211 563.809 86.9258 52.5197 -114.082 -141.424
