#Rx
# X(m), Y(m), Z(m), Distance(m), Power (dBm) Phase (deg)
1 681.539 604.522 137.693 123.266 -129.321 145.023
2 684.086 574.501 138.331 114.99 -135.262 -58.8857
3 685.962 552.396 137.626 112.725 -129.251 15.7161
4 827.427 486.308 132.804 142.167 -130.217 47.7135
5 801.757 509.46 134.722 119.011 -115.759 -84.7344
6 790.749 519.389 135.444 110.842 -118.896 26.0936
7 739.443 565.661 136.122 93.9986 -127.665 155.193
8 664.256 633.473 137.377 145.181 -122.206 162.93
9 797.391 497.564 134.984 122.834 -114.952 32.2456
10 722.448 832.806 98.5464 279.493 -250 0
