#Rx
# X(m), Y(m), Z(m), Distance(m), Power (dBm) Phase (deg)
1 686.209 549.484 138.633 113.677 -126.009 -109.288
2 744.007 561.545 137.21 94.7199 -138.126 -78.849
3 693.575 607.03 139.036 119.477 -129.549 39.9208
4 663.581 634.081 138.488 146.595 -119.29 4.90155
5 848.834 538.706 132.826 138.502 -119.537 144.549
6 814.484 421.096 134.696 180.223 -110.682 -38.5373
7 774.859 598.357 137.802 106.687 -126.858 -138.336
8 771.416 613.759 137.876 112.374 -120.513 91.7034
9 754.179 690.862 136.883 161.541 -113.444 16.6862
10 728.883 804.022 99.764 251.229 -250 0
