#Rx
# X(m), Y(m), Z(m), Distance(m), Power (dBm) Phase (deg)
1 677.901 647.393 88.4849 119.948 -131.182 81.041
2 691.356 488.823 88.2659 100.72 -118.938 -179.474
3 669.692 542.989 89.7064 91.3151 -112.112 68.3776
4 772.989 442.88 86.6688 128.04 -107.638 -43.7874
5 756.6 641.807 87.8657 94.131 -108.189 -152.452
6 758.716 616.129 88.2173 73.485 -105.196 4.31773
7 767.915 504.462 86.5002 74.1532 -110.948 104.357
8 780.816 660.922 86.6445 115.516 -123.28 55.9583
9 769.924 644.026 87.7835 98.3932 -109.087 129.271
10 717.416 562.577 86.8947 52.8438 -121.685 -52.8799
