#Rx
# X(m), Y(m), Z(m), Distance(m), Power (dBm) Phase (deg)
1 686.946 540.798 91.2652 78.9419 -114.209 -33.1963
2 699.187 396.539 90.3728 176.637 -146.34 49.8858
3 742.83 562.606 90.3326 47.9848 -102.719 95.0351
4 668.143 629.967 91.6374 115.626 -136.607 154.445
5 752.014 697.482 89.6236 145.451 -109.019 74.1876
6 761.982 576.478 90.7092 53.3742 -103.791 138.507
7 820.263 395.247 86.4648 185.982 -132.832 92.8626
8 794.313 511.33 89.3194 83.0226 -125.573 -108.629
9 780.559 572.855 90.3728 60.4083 -104.039 14.1467
10 732.964 785.765 83.6004 229.842 -117.809 -32.6476
