#Rx
# X(m), Y(m), Z(m), Distance(m), Power (dBm) Phase (deg)
1 677.72 649.526 113.041 132.852 -124.255 151.7
2 699.114 397.399 112.266 183.034 -146.33 -132.482
3 739.086 541.33 111.347 71.6451 -107.863 170.16
4 722.657 541.723 111.132 74.74 -105.735 -111.551
5 768.256 500.33 111.084 93.5752 -106.31 -18.7452
6 771.061 466.276 111.263 118.901 -114.134 -144.998
7 773.427 437.561 111.496 143.181 -113.427 -136.674
8 758.166 673.027 111.913 133.184 -110.564 89.5027
9 724.314 824.459 74.5229 267.269 -250 0
10 798.43 688.244 109.293 153.798 -130.409 139.507
