#Rx
# X(m), Y(m), Z(m), Distance(m), Power (dBm) Phase (deg)
1 682.67 591.196 89.3775 84.73 -136.944 -169.004
2 684.012 575.38 89.5785 79.3301 -124.682 -68.0001
3 689.091 515.525 87.8472 85.27 -116.14 -27.3315
4 659.823 543.225 90.2575 99.9317 -124.618 -31.557
5 754.281 669.967 87.4546 119.08 -102.457 -70.6767
6 755.545 654.622 87.8821 105.366 -102.588 157.388
7 760.622 592.994 87.8015 57.9006 -102.71 23.1162
8 772.747 445.806 86.749 125.346 -109.392 138.081
9 799.559 487.863 85.9914 99.809 -104.88 -52.4726
10 778.827 580.603 87.5557 59.414 -112.768 73.8182
