#Rx
# X(m), Y(m), Z(m), Distance(m), Power (dBm) Phase (deg)
1 679.728 625.867 84.5295 102.445 -139.873 -108.295
2 685.784 554.492 84.9164 73.8475 -122.92 -120.022
3 825.654 487.907 80.2767 113.874 -119.123 -54.0326
4 750.505 541.057 82.5898 44.5471 -97.5829 -87.3705
5 668.304 543.022 85.7161 90.5012 -124.507 100.272
6 757.032 636.563 83.8687 87.7098 -104.972 83.1559
7 759.646 604.838 83.8952 62.5163 -101.887 11.7005
8 768.814 493.555 82.3252 80.7439 -109.544 -26.484
9 724.991 821.432 45.6165 262.293 -250 0
10 800.034 690.733 80.2688 146.409 -250 0
