#Rx
# X(m), Y(m), Z(m), Distance(m), Power (dBm) Phase (deg)
1 776.935 531.847 84.1605 59.0183 -101.804 118.03
2 751.007 555.232 84.5576 42.5989 -103.521 -176.669
3 738.706 566.326 84.606 43.176 -99.4725 -23.3313
4 663.838 633.85 85.9458 118.701 -144.918 -71.9802
5 731.916 541.501 83.7091 47.2948 -101.056 143.359
6 767.112 514.218 83.664 65.0713 -101.464 -167.024
7 772.838 444.703 83.9465 125.418 -112.64 -18.8161
8 758.793 670.226 84.7137 118.715 -107.049 -77.9525
9 796.231 502.75 83.6368 86.5511 -109.826 50.3142
10 715.279 559.262 84.3904 51.9341 -111.516 -97.0883
