#Rx
# X(m), Y(m), Z(m), Distance(m), Power (dBm) Phase (deg)
1 699.178 396.643 137.508 194.679 -134.487 50.6445
2 717.379 585.561 137.781 102.696 -121.144 30.397
3 669.066 629.135 138.642 141.199 -125.861 47.8703
4 837.293 538.982 133.628 130.677 -117.641 141.057
5 721.806 541.743 136.262 98.5168 -137.927 12.7834
6 759.131 611.086 138.017 109.093 -125.414 76.9486
7 763.807 554.325 137.351 96.6514 -120.921 84.4015
8 770.063 478.391 136.53 126.792 -115.825 -102.615
9 795.691 505.165 136.359 119.504 -114.349 -42.7733
10 782.48 564.265 137.289 101.634 -124.372 -110.193
