#Rx
# X(m), Y(m), Z(m), Distance(m), Power (dBm) Phase (deg)
1 682.109 597.806 108.418 99.2644 -123.413 135.24
2 687.479 534.516 107.384 90.9998 -115.961 -13.1425
3 727.814 576.15 106.921 68.8373 -103.759 -151.38
4 752.874 687.038 106.384 142.352 -109.299 -139.565
5 754.996 661.285 107.141 120.478 -105.478 -46.7655
6 769.631 621.743 107.325 92.5728 -111.201 -124.531
7 751.946 700.851 105.876 154.557 -109.079 68.7484
8 724.923 821.737 69.0871 263.924 -250 0
9 783.881 665.676 105.686 128.809 -108.79 -23.0122
