#Rx
# X(m), Y(m), Z(m), Distance(m), Power (dBm) Phase (deg)
1 673.63 697.727 135.916 181.462 -128.565 -124.643
2 687.799 530.749 137.917 115.511 -124.687 -10.7044
3 696.677 426.116 138.719 172.079 -146.092 13.3006
4 699.107 397.481 137.407 193.944 -132.594 -137.82
5 659.2 543.24 140.411 131.898 -135.896 72.4074
6 752.633 689.971 137.016 160.827 -112.507 50.9887
7 816.917 410.213 134.176 189.382 -122.329 54.5247
8 802.983 472.547 135.754 139.954 -126.006 -53.1176
9 775.893 593.73 137.598 105.216 -121.3 39.6492
10 756.534 680.328 137.026 153.364 -111.521 3.13393
