#Rx
# X(m), Y(m), Z(m), Distance(m), Power (dBm) Phase (deg)
1 677.295 654.533 138.268 151.075 -124.992 -134.119
2 698.996 398.784 137.546 192.948 -139.8 -83.7045
3 745.402 541.179 136.711 96.051 -128.972 -123.092
4 728.616 541.58 136.491 97.321 -124.406 -40.9728
5 767.888 504.796 136.36 111.049 -119.117 -144.355
6 770.627 471.541 136.538 131.416 -116.619 7.67054
7 773.402 437.855 136.771 156.694 -116.483 154.731
8 759.255 668.156 137.306 144.421 -118.324 117.31
9 724.956 821.588 99.804 268.612 -250 0
10 801.061 692.325 134.151 170.11 -115.276 -179.634
