#Rx
# X(m), Y(m), Z(m), Distance(m), Power (dBm) Phase (deg)
1 682.867 588.869 139.293 119.094 -128.289 -161.509
2 695.884 435.463 138.968 165.295 -121.042 -82.2447
3 697.631 414.869 137.79 180.218 -139.286 -177.077
4 779.021 540.375 136.844 101.843 -113.411 -77.7265
5 761.78 578.936 137.599 98.2187 -145.935 17.2095
6 762.804 566.509 137.351 96.5242 -127.852 150.44
7 764.004 551.935 137.181 96.6915 -130.376 -67.5248
8 736.773 768.729 131.817 227.214 -112.168 19.9551
9 723.09 829.934 99.529 276.837 -250 0
10 715.618 559.787 136.794 99.0456 -124.939 -64.6528
