#Rx
# X(m), Y(m), Z(m), Distance(m), Power (dBm) Phase (deg)
1 680.938 611.61 91.0678 96.1939 -134.168 -176.225
2 697.715 413.88 90.1259 161.085 -250 0
3 660.873 636.524 90.7326 124.204 -129.035 -45.6044
4 773.135 540.516 89.3438 57.5161 -107.06 46.2861
5 726.123 541.64 88.689 53.511 -102.848 -24.9388
6 810.388 439.423 87.612 143.936 -122.295 112.851
7 781.247 569.78 89.6361 59.6454 -106.401 -92.7641
8 744.941 732.189 87.0748 177.863 -111.932 173.595
9 741.546 747.376 85.7662 192.352 -115.051 103.138
10 725.736 818.097 52.0345 259.066 -250 0
