#Rx
# X(m), Y(m), Z(m), Distance(m), Power (dBm) Phase (deg)
1 699.208 396.293 187.509 223.63 -130.475 166.036
2 714.015 588.594 188.112 151.778 -133.935 -133.023
3 667.136 630.875 188.623 180.521 -134.478 -123.805
4 833.586 539.07 183.886 167.609 -121.058 74.9444
5 717.526 541.845 186.217 147.608 -137.132 105.175
6 759.48 606.853 187.967 153.397 -150.015 84.1725
7 764.172 549.905 187.213 146.175 -138.647 131.022
8 770.357 474.819 186.534 169.08 -122.579 -144.36
9 794.684 509.672 186.429 160.037 -125.053 52.2528
10 781.594 568.227 187.344 149.357 -139.856 -16.5652
