#Rx
# X(m), Y(m), Z(m), Distance(m), Power (dBm) Phase (deg)
1 689.252 513.619 140.804 122.599 -120.38 107.097
2 786.158 523.529 139.44 111.066 -118.696 81.8698
3 668.547 629.602 141.364 143.571 -135.183 47.5316
4 738.089 541.354 139.302 98.8751 -129.823 1.07569
5 763.251 561.073 140.248 99.241 -135.031 155.31
6 765.7 531.349 139.361 102.89 -123.522 36.2812
7 824.213 377.578 135.351 219.116 -113.678 102.446
8 785.651 550.077 139.819 105.532 -120.054 107.599
9 772.524 608.801 140.634 112.741 -118.015 -53.153
10 784.531 666.685 139.131 148.995 -120.117 -72.3968
