#Rx
# X(m), Y(m), Z(m), Distance(m), Power (dBm) Phase (deg)
1 687.945 529.03 87.9508 79.9576 -117.319 -69.1508
2 698.923 399.648 87.5446 173.078 -147.404 156.926
3 785.157 524.431 86.699 68.9196 -113.328 -66.2007
4 749.49 728.116 84.9265 173.416 -116.188 126.372
5 758.491 618.861 88.2268 75.5605 -103.39 -179.933
6 771.985 455.059 86.4201 116.682 -110.191 -40.6776
7 817.298 408.511 84.0945 172.512 -135.617 12.3166
8 752.817 696.957 86.6426 144.05 -106.113 -84.6187
9 722.585 832.196 49.664 273.295 -250 0
