#Rx
# X(m), Y(m), Z(m), Distance(m), Power (dBm) Phase (deg)
1 679.451 629.127 92.7499 108.305 -144.015 144.21
2 685.577 556.931 93.2652 78.9623 -129.455 126.541
3 827.583 486.167 88.3986 119.213 -115.534 -129.418
4 753.105 540.995 90.8794 52.4401 -100.057 126.087
5 669.978 542.982 93.8545 93.2946 -127.954 -78.4638
6 756.81 639.268 92.0982 94.1165 -110.931 -156.649
7 759.406 607.755 92.1855 70.1892 -108.342 -62.0438
8 768.582 496.366 90.5775 82.8756 -117.084 -43.1127
9 725.346 819.843 53.872 260.909 -250 0
10 801.613 693.182 88.2702 151.403 -250 0
