#Rx
# X(m), Y(m), Z(m), Distance(m), Power (dBm) Phase (deg)
1 677.901 647.393 188.485 183.248 -135.782 -125.491
2 691.356 488.823 188.266 171.152 -121.365 -20.0875
3 669.692 542.989 189.706 166.658 -122.635 -173.106
4 772.989 442.88 186.669 187.679 -124.428 61.707
5 756.6 641.807 187.866 167.12 -123.016 7.49393
6 758.716 616.129 188.217 156.649 -123.926 -165.838
7 767.915 504.462 186.5 155.865 -125.423 45.9868
8 780.816 660.922 186.645 179.355 -122.731 -166.628
9 769.924 644.026 187.784 169.509 -127.872 -84.3741
10 717.416 562.577 186.895 147.196 -134.899 -55.2023
