#Rx
# X(m), Y(m), Z(m), Distance(m), Power (dBm) Phase (deg)
1 682.771 589.997 135.43 116.315 -122.797 66.5351
2 695.759 436.933 135.106 161.991 -134.674 -82.557
3 697.545 415.881 134.023 177.455 -136.864 -122.895
4 780.278 540.345 132.988 98.7176 -119.005 118.302
5 761.696 579.957 133.772 94.7153 -136.786 101.423
6 762.719 567.539 133.524 92.8306 -128.311 -167.691
7 763.918 552.988 133.375 92.8669 -131.442 -148.935
8 737.082 767.344 128.085 224.481 -117.189 110.472
9 723.177 829.549 95.6904 275.688 -250 0
10 715.666 559.862 132.954 95.383 -123.806 -52.3303
