#Rx
# X(m), Y(m), Z(m), Distance(m), Power (dBm) Phase (deg)
1 677.901 647.393 98.3456 124.061 -132.484 36.8252
2 691.356 488.823 98.1266 105.564 -121.649 133.576
3 669.692 542.989 99.5671 96.7791 -120.301 156.913
4 772.989 442.88 96.5294 131.766 -110.501 34.6071
5 756.6 641.807 97.7263 99.2576 -109.285 125.685
6 758.716 616.129 98.0779 79.9902 -108.977 -116.299
7 767.915 504.462 96.3609 80.3941 -108.736 -32.9643
8 780.816 660.922 96.5052 119.63 -130.41 -80.6701
9 769.924 644.026 97.6442 103.301 -112.059 -43.9956
10 717.416 562.577 96.7553 61.3576 -116.309 127.136
