#Rx
# X(m), Y(m), Z(m), Distance(m), Power (dBm) Phase (deg)
1 677.508 652.031 88.2949 123.515 -133.253 -112.783
2 699.059 398.039 87.5464 174.533 -142.011 113.586
3 742.243 541.254 86.6693 48.1078 -108.168 -44.4162
4 725.638 541.651 86.4521 51.7783 -111.655 -94.623
5 768.072 502.565 86.3624 75.5497 -118.363 -129.519
6 770.849 468.856 86.5408 104.222 -108.059 -155.499
7 773.419 437.649 86.7756 132.965 -111.662 -8.18755
8 758.71 670.593 87.2503 119.97 -113.743 -157.556
9 724.623 823.076 49.804 264.044 -250 0
10 799.745 690.285 84.3628 147.014 -250 0
