#Rx
# X(m), Y(m), Z(m), Distance(m), Power (dBm) Phase (deg)
1 682.676 591.126 89.379 84.7007 -127.723 -153.641
2 695.632 438.432 89.0563 139.574 -134.816 66.9986
3 697.457 416.921 88.07 157.805 -250 0
4 781.532 540.315 86.9439 60.1931 -102.832 73.9897
5 761.612 580.976 87.7582 52.2485 -123.61 -75.9556
6 762.634 568.574 87.5104 48.7238 -110.699 90.3324
7 763.831 554.037 87.3817 48.639 -113.45 9.57632
8 737.393 765.954 82.166 209.911 -110.885 25.109
9 723.269 829.137 49.664 270.19 -250 0
10 715.729 559.961 86.9269 53.7398 -115.502 -6.19984
