#Rx
# X(m), Y(m), Z(m), Distance(m), Power (dBm) Phase (deg)
1 680.938 611.61 88.7973 95.0683 -132.757 -61.4654
2 697.715 413.88 87.8554 160.429 -250 0
3 660.873 636.524 88.4621 123.341 -141.119 34.7802
4 773.135 540.516 87.0733 55.6835 -106.382 -21.2222
5 726.123 541.64 86.4184 51.565 -113.203 -133.861
6 810.388 439.423 85.3415 143.241 -109.414 -122.543
7 781.247 569.78 87.3655 57.8688 -108.324 170.314
8 744.941 732.189 84.8043 177.308 -113.587 152.272
9 741.546 747.376 83.4957 191.855 -107.256 64.2706
10 725.736 818.097 49.764 258.993 -250 0
