#Rx
# X(m), Y(m), Z(m), Distance(m), Power (dBm) Phase (deg)
1 689.252 513.619 137.977 120.345 -128.818 77.5382
2 786.158 523.529 136.613 108.608 -115.249 98.9364
3 668.547 629.602 138.537 141.64 -127.458 150.268
4 738.089 541.354 136.475 96.11 -122.789 -106.947
5 763.251 561.073 137.421 96.4587 -126.553 -33.9883
6 765.7 531.349 136.534 100.234 -123.849 -135.615
7 824.213 377.578 132.524 217.933 -114.685 3.08173
8 785.651 550.077 136.992 102.932 -136.95 148.542
9 772.524 608.801 137.807 110.29 -120.403 172.606
10 784.531 666.685 136.304 147.177 -113.095 -113.055
