#Rx
# X(m), Y(m), Z(m), Distance(m), Power (dBm) Phase (deg)
1 689.719 508.122 94.1241 92.3121 -123.874 -102.383
2 695.014 445.715 95.2429 135.794 -150.118 -72.7539
3 749.603 726.75 91.2406 173.758 -110.29 67.6133
4 778.381 582.598 93.7043 64.6429 -103.605 88.1927
5 811.505 434.425 91.4249 149.838 -113.461 17.039
6 792.688 679.337 91.5198 137.192 -126.253 -91.5259
7 784.596 666.786 92.5586 124.082 -126.854 -107.312
8 770.629 645.12 93.7397 102.348 -106.662 -114.604
9 717.934 563.38 93.0689 57.9135 -99.4513 -178.416
10 715.279 559.262 93.2363 59.2966 -112.162 50.6645
