#Rx
# X(m), Y(m), Z(m), Distance(m), Power (dBm) Phase (deg)
1 699.142 397.067 98.2306 178.455 -151.396 -35.0952
2 751.028 555.213 97.9254 55.8351 -106.595 -138.005
3 761.956 540.783 97.6101 60.4849 -101.728 -103.548
4 759.073 611.797 98.9886 77.7314 -105.182 -21.6661
5 750.466 707.473 97.3232 157.389 -109.218 68.1322
6 811.564 434.163 96.123 151.679 -116.657 99.4152
7 781.029 570.756 98.2021 66.6543 -107.921 -143.965
8 720.089 566.723 97.8691 61.4793 -106.527 -66.4863
9 717.329 562.442 97.8193 62.3346 -108.466 151.653
10 715.665 559.86 97.7511 63.0105 -104.002 -25.1887
