#Rx
# X(m), Y(m), Z(m), Distance(m), Power (dBm) Phase (deg)
1 685.005 563.673 139.608 114.714 -122.694 90.658
2 688.357 524.167 138.045 117.18 -117.03 74.2178
3 692.255 478.225 138.766 137.252 -120.809 -165.537
4 740.902 564.345 137.731 95.4427 -131.884 111.538
5 719.09 541.808 136.66 99.5828 -122.168 50.5443
6 672.091 542.932 139.732 123.302 -125.904 93.774
7 763.469 558.43 137.712 96.7911 -127.324 -20.1767
8 772.898 443.984 137.12 152.091 -114.394 -29.136
9 773.296 439.147 137.078 155.856 -113.363 64.9106
10 748.384 716.787 136.183 182.647 -109.93 -178.491
