#Rx
# X(m), Y(m), Z(m), Distance(m), Power (dBm) Phase (deg)
1 674.379 688.908 86.5331 153.895 -118.259 143.902
2 690.982 493.234 88.1968 97.8299 -118.239 25.3222
3 797.535 513.268 86.1316 82.1065 -117.832 -160.86
4 733.67 570.868 87.4682 47.8555 -125.347 21.4367
5 661.398 543.187 90.2873 98.5982 -111.205 153.501
6 659.347 543.236 90.4115 100.414 -114.492 -9.1232
7 751.562 702.965 86.5004 149.679 -119.706 178.002
8 828.466 358.552 80.9461 221.039 -126.362 96.5609
9 811.09 436.282 85.1928 146.162 -112.765 -33.8783
