#Rx
# X(m), Y(m), Z(m), Distance(m), Power (dBm) Phase (deg)
1 699.037 398.307 97.3159 177.066 -155.705 -75.4271
2 734.735 569.907 97.2617 56.7565 -102.546 36.3355
3 709.434 592.727 98.4723 74.4203 -136.009 33.1691
4 820.457 539.384 94.7086 93.2316 -124.47 85.8076
5 748.499 740.142 93.8804 187.336 -112.58 -127.991
6 750.3 718.291 95.55 166.992 -111.844 -114.797
7 815.192 417.933 94.3549 166.304 -125.735 172.207
8 751.777 701.607 96.5452 151.671 -112.849 7.63009
9 738.391 761.491 92.3192 207.692 -119.379 85.4061
10 787.025 670.554 96.1247 129.531 -128.467 -25.139
