#Rx
# X(m), Y(m), Z(m), Distance(m), Power (dBm) Phase (deg)
1 688.372 523.991 97.682 87.5216 -117.902 172.543
2 699.059 398.042 97.414 177.333 -153.153 129.515
3 845.106 470.363 92.8446 142.79 -116.269 -99.9061
4 781.16 528.037 96.6085 71.9931 -108.125 -68.3539
5 749.976 722.222 95.2823 170.632 -110.663 8.79176
6 758.883 614.096 98.0606 78.5918 -107.218 -113.364
7 772.287 451.393 96.3625 124.037 -109.607 162.336
8 816.119 413.787 94.2144 170.197 -112.719 41.4555
9 751.546 702.642 96.3791 152.571 -112.297 -131.876
10 722.521 832.48 59.5316 274.018 -250 0
