#Rx
# X(m), Y(m), Z(m), Distance(m), Power (dBm) Phase (deg)
1 698.209 408.056 87.5844 165.534 -250 0
2 727.173 541.615 86.4722 51.2246 -109.852 -124.224
3 760.779 591.08 87.9187 56.966 -106.862 106.057
4 763.101 562.898 87.4427 48.1516 -118.973 32.2895
5 800.696 482.776 85.9127 104.105 -107.555 -18.6971
6 791.742 522.831 86.5328 73.5573 -107.273 -152.926
7 785.037 552.827 87.1703 59.7382 -113.086 -94.7762
8 724.389 824.127 49.804 265.11 -250 0
9 722.718 831.602 49.764 272.695 -250 0
10 715.279 559.262 87.0755 54.1219 -108.246 -30.5445
