#Rx
# X(m), Y(m), Z(m), Distance(m), Power (dBm) Phase (deg)
1 685.864 553.555 91.0379 77.5343 -132.075 -151.339
2 747.118 558.739 89.412 46.9187 -99.329 -162.828
3 696.317 604.556 91.3391 82.6837 -130.569 -119.403
4 664.686 633.085 90.7489 119.495 -137.173 -89.3308
5 815.462 416.725 86.7371 165.25 -126.273 151.751
6 775.738 594.424 89.9972 65.7501 -102.752 -139.349
7 772.294 609.829 90.071 73.723 -102.969 150.53
8 755.021 687.099 89.2195 135.706 -108.532 57.6458
9 729.689 800.418 52.0137 241.158 -250 0
