#Rx
# X(m), Y(m), Z(m), Distance(m), Power (dBm) Phase (deg)
1 688.265 525.253 87.8065 81.1864 -115.236 166.754
2 699.029 398.402 87.546 174.205 -140.765 24.8413
3 782.161 527.133 86.7255 65.8914 -104.061 111.89
4 749.854 723.695 85.2927 169.234 -105.83 -78.1262
5 758.785 615.285 88.2072 72.8483 -106.625 -146.559
6 772.215 452.27 86.477 119.268 -111.758 66.7966
7 816.414 412.465 84.2836 168.726 -127.965 169.777
8 751.863 701.224 86.5442 148.042 -108.091 -152.844
9 722.528 832.452 49.664 273.554 -250 0
