#Rx
# X(m), Y(m), Z(m), Distance(m), Power (dBm) Phase (deg)
1 699.125 397.268 88.5924 175.503 -144.171 43.7969
2 752.153 554.198 88.2702 46.5219 -100.627 30.3129
3 763.356 540.75 87.9905 52.336 -99.0017 96.1847
4 758.983 612.892 89.3638 71.8339 -107.843 -115.479
5 750.731 706.287 87.7126 153.18 -117.391 -3.59995
6 811.854 432.865 86.465 149.769 -114.063 -54.3733
7 781.318 569.461 88.5462 58.779 -100.076 106.47
8 720.459 567.298 88.2549 52.886 -99.6554 18.8929
9 717.602 562.866 88.1762 53.8406 -115.352 -55.9314
10 715.728 559.959 88.112 54.7236 -110.056 9.87692
