#Rx
# X(m), Y(m), Z(m), Distance(m), Power (dBm) Phase (deg)
1 778.435 530.494 86.7826 62.3016 -104.395 10.1345
2 795.633 539.978 86.5645 69.3101 -125.529 -133.313
3 762.501 570.187 87.5296 49.006 -114.286 -59.0243
4 764.35 547.734 87.045 49.6927 -112.634 160.568
5 769.358 486.953 86.3802 88.3448 -107.758 7.57344
6 773.244 439.776 86.7321 130.959 -110.38 -167.713
7 810.663 438.193 85.2224 144.365 -111.853 -166.929
8 807.447 452.577 85.4451 130.988 -106.312 -50.2016
9 723.701 572.326 87.3773 51.5852 -111.833 -172.583
10 717.191 562.228 86.899 52.9538 -116.437 -74.8667
