#Rx
# X(m), Y(m), Z(m), Distance(m), Power (dBm) Phase (deg)
1 681.056 610.22 94.0445 96.9236 -139.315 126.116
2 697.796 412.932 93.0057 162.791 -250 0
3 660.808 636.582 93.6787 125.456 -130.719 -135.305
4 771.746 540.549 92.2723 59.2968 -107.552 -179.524
5 724.918 541.669 91.6199 56.4885 -106.908 -72.1015
6 810.128 440.584 90.5766 143.812 -110.326 174.91
7 780.921 571.239 92.603 62.0783 -103.122 -66.9109
8 744.648 733.5 89.9206 179.863 -123.005 -32.1134
9 741.254 748.684 88.6122 194.29 -111.477 -152.231
10 725.514 819.092 54.9812 260.199 -250 0
