#Rx
# X(m), Y(m), Z(m), Distance(m), Power (dBm) Phase (deg)
1 679.38 629.965 88.6728 107.066 -122.956 39.2176
2 690.565 498.148 88.2597 94.8185 -120.947 -78.8559
3 749.245 731.09 84.5803 176.213 -115.111 165.13
4 750.634 714.232 86.1165 160.341 -107.938 71.0894
5 765.648 531.977 86.5534 55.7671 -106.957 154.101
6 769.602 483.992 86.5236 90.9413 -108.748 112.085
7 808.695 446.994 85.4587 136.179 -110.704 168.302
8 769.274 623.34 87.9892 81.3679 -109.076 -25.9326
9 730.652 796.108 79.6409 239.5 -114.892 124.064
10 715.666 559.863 86.9281 53.7765 -113.862 157.638
